# :::::::::::::::::::::::::::::::::::
# ::        Cornell (pi+ n)        ::
# :::::::::::::::::::::::::::::::::::

# C. J. Bebek et al., Phys. Rev. D 13, 25 (1976)


$vars: w (GeV) & qsquared (GeV^2) & thetacm (deg) & epsilon & phi (deg) & diff_phi


# W (GeV)    Q^2 (GeV^2)    theta (deg)        epsilon      phi (deg)       sigma_phi (ub/sr)
# -------    -----------    -----------        -------      ---------       -----------------
  1.643          2.213          34.55          0.967           16.5       1.0610     0.2820
  1.650          1.352          34.27          0.975           15.6       3.8900     1.3341
  1.669          1.352          31.42          0.974           14.6       1.9770     0.7047
  1.669          4.369          31.18          0.918           17.5       0.5890     0.1720
  1.675          1.361          31.39          0.973           12.6       2.7030     0.7783
  1.681          2.182          31.45          0.966           14.6       1.0720     0.2258
  1.685          4.420          28.76          0.915           15.5       0.4640     0.1301
  1.708          1.314          28.43          0.973           12.9       3.3630     0.7985
  1.708          1.330          28.65          0.973           12.1       1.2880     0.5425
  1.715          2.167          28.41          0.965           13.2       1.1680     0.2198
  1.746          1.308          25.41          0.971           14.7       1.1750     0.3130
  1.759          4.299          25.32          0.913           23.3       0.4650     0.1272
  1.762          2.158          25.48          0.963           16.7       1.2020     0.1978
  1.763          1.327          25.09          0.970           14.3       1.6430     0.4316
  1.796          4.238          22.45          0.911           21.7       0.3380     0.0834
  1.799          1.306          22.40          0.969           15.1       1.7130     0.3549
  1.805          2.135          22.48          0.961           15.1       1.2160     0.1892
  1.809          1.323          22.35          0.968           16.7       1.4460     0.3624
  1.839          4.270          19.52          0.907           20.7       0.2180     0.0746
  1.845          1.296          19.30          0.966           17.2       1.8520     0.3620
  1.852          1.307          19.39          0.966           19.1       1.9400     0.3578
  1.857          2.119          19.37          0.959           19.6       1.1480     0.1675
  1.882          4.234          16.35          0.904           28.7       0.2500     0.0702
  1.892          1.270          16.35          0.964           22.0       2.0170     0.3270
  1.893          1.285          16.46          0.964           21.4       1.6320     0.3163
  1.910          2.095          16.38          0.956           26.4       1.1180     0.1604
  1.930          4.140          13.29          0.902           20.8       0.5500     0.1184
  1.936          1.269          13.60          0.962           23.5       3.3590     0.5015
  1.942          1.275          13.22          0.961           23.4       1.9780     0.3505
  1.948          2.072          13.28          0.954           24.1       1.0300     0.1504
  1.980          1.254          10.54          0.959           24.2       2.8930     0.4672
  1.980          1.263          10.47          0.959           23.6       3.6570     0.5449
  1.985          2.053          10.48          0.952           23.2       1.6530     0.2259
  2.002          4.086          10.67          0.896           31.2       0.3070     0.0780
  2.017          1.256           7.81          0.956           25.6       3.3730     0.5529
  2.018          2.040          13.32          0.950           58.1       1.9960     0.6414
  2.020          4.075           7.33          0.894           25.3       0.4300     0.1237
  2.022          1.234           7.58          0.956           25.7       4.6620     0.6603
  2.026          2.023           7.67          0.950           25.7       1.8600     0.2626
  2.064          1.211           4.78          0.954           27.8       3.5610     0.6710
  2.065          1.226           4.68          0.953           27.2       4.4660     0.7511
  2.071          2.027           4.76          0.947           26.1       2.0530     0.3444
  2.081          3.975           4.73          0.890           24.3       0.1820     0.0850
  2.087          2.003          10.29          0.946           70.5       1.2870     0.3171
  2.104          1.210          10.32          0.950           78.1       2.9580     1.1961
  2.107          1.194           7.45          0.951           78.0       5.4430     1.0739
  2.126          3.897          28.54          0.888           11.2       0.2520     0.0809
  2.130          2.012           4.60          0.942           86.8       2.1040     0.4113
  2.137          1.191           7.66          0.948           87.5       3.1250     0.8429
  2.138          1.212           1.84          0.948           87.1       5.2420     0.7903
  2.139          3.991           1.90          0.883           76.2       0.5130     0.1601
  2.140          1.988           2.00          0.942           89.1       2.2810     0.3302
  2.141          1.207           4.94          0.947           95.4       4.6590     0.7840
  2.143          1.200           4.57          0.947           92.5       3.5900     0.5829
  2.143          1.216           1.80          0.947           92.1       5.0800     0.8210
  2.144          1.215           4.35          0.947           99.3       3.0600     0.7378
  2.145          1.211           4.63          0.947           89.0       3.5180     0.7932
  2.145          1.213          10.58          0.947           87.8       3.1480     0.4576
  2.145          4.021          13.31          0.881           87.2       0.4320     0.0865
  2.147          1.981           7.51          0.942           86.6       1.5300     0.3138
  2.148          1.992           7.40          0.941           91.9       1.5910     0.2134
  2.150          3.830          25.77          0.887           11.0       0.2760     0.0833
  2.151          1.210           7.33          0.946           91.4       3.3760     0.4898
  2.151          2.009           4.71          0.941           92.9       1.3660     0.2335
  2.156          3.989          10.18          0.881           92.1       0.3080     0.0732
  2.157          1.219           7.63          0.946           94.1       3.7430     0.5539
  2.159          1.190          10.52          0.946           94.2       2.7410     0.3965
  2.159          1.983          10.40          0.940           94.3       1.7470     0.2226
  2.169          3.961           7.49          0.881           97.8       0.6780     0.1478
  2.170          1.962          13.49          0.940           95.2       1.4440     0.1876
  2.174          3.932           4.68          0.881           97.1       0.3700     0.1267
  2.183          1.188          13.38          0.943           96.6       2.3120     0.3586
  2.200          1.196          13.53          0.942          100.5       3.0680     0.5414
  2.207          1.165           4.61          0.942          155.5       3.5690     0.6472
  2.211          1.175          16.13          0.941           98.9       1.6680     0.3275
  2.211          1.958          16.29          0.936          100.0       0.9430     0.1494
  2.216          1.188           4.46          0.941          159.5       4.4290     0.8926
  2.216          3.880           4.89          0.877          153.2       0.5110     0.1933
  2.221          1.936           4.84          0.936          154.6       1.1590     0.2695
  2.226          3.899          16.70          0.874          103.4       0.5020     0.0975
  2.242          3.758          22.70          0.877           21.5       0.3690     0.0908
  2.248          1.947          19.44          0.932          103.0       1.0050     0.1730
  2.255          1.173          16.44          0.937          106.5       1.3650     0.3234
  2.256          1.151           7.53          0.938          153.1       3.0580     0.5421
  2.259          3.870           7.27          0.872          153.4       0.4770     0.1265
  2.261          1.184           7.54          0.967          151.0       2.6950     0.5055
  2.262          3.909          19.12          0.869          106.5       0.2260     0.0669
  2.267          1.937           7.54          0.932          156.3       2.0780     0.2824
  2.295          3.732          19.26          0.871           23.0       0.4410     0.0961
  2.303          3.855          10.72          0.866          153.4       0.5540     0.1357
  2.308          1.907          10.58          0.929          152.8       1.4690     0.2038
  2.309          1.147          10.46          0.932          153.9       2.3800     0.4003
  2.312          1.146          10.57          0.932          153.6       2.6030     0.4287
  2.325          1.164          19.04          0.929          115.7       1.2490     0.4319
  2.342          1.145          19.26          0.928          121.8       1.6820     0.4894
  2.344          3.661          16.54          0.866           26.7       0.4940     0.1058
  2.362          1.139          13.54          0.926          153.1       2.3040     0.3736
  2.362          2.247          31.31          0.912            9.8       0.2220     0.0756
  2.363          1.120          13.36          0.927          153.8       2.2980     0.3662
  2.363          1.877          13.53          0.924          152.7       1.0810     0.1583
  2.365          1.569          28.39          0.932            8.7       0.3710     0.1004
  2.371          3.752          13.33          0.859          153.7       0.4520     0.0945
  2.374          1.845          22.31          0.923          120.0       0.9590     0.2367
  2.415          1.108          16.34          0.920          152.5       1.1470     0.2248
  2.415          1.133          16.16          0.919          152.2       0.9170     0.2100
  2.415          1.844          16.54          0.918          154.5       0.7970     0.1189
  2.419          3.593          13.34          0.857           25.2       0.4340     0.1007
  2.433          2.191          28.33          0.906           11.0       0.3200     0.0783
  2.440          3.742          16.67          0.849          153.2       0.3040     0.0780
  2.444          1.551          25.38          0.924           10.2       0.3450     0.0845
  2.451          3.556          10.77          0.853           26.9       0.7380     0.1605
  2.459          1.831          19.17          0.913          156.6       0.5660     0.0929
  2.471          1.082          19.62          0.913          151.8       1.0360     0.2062
  2.474          3.673          19.17          0.845          155.5       0.2460     0.0634
  2.485          1.078          19.51          0.912          156.0       0.8870     0.2075
  2.490          2.158          25.23          0.899           12.5       0.2400     0.0817
  2.508          1.490          22.43          0.917           13.4       0.2540     0.0976
  2.510          1.493          22.32          0.918           12.2       0.5840     0.1043
  2.516          1.811          22.19          0.906          153.6       0.4010     0.0690
  2.525          3.481           7.41          0.843           22.9       0.5310     0.1381
  2.535          1.081          22.48          0.904          156.5       0.3380     0.1106
  2.542          3.558          22.36          0.837          155.5       0.2450     0.0586
  2.553          1.041          22.53          0.903          156.6       0.5050     0.1697
  2.565          2.125          22.44          0.888           16.7       0.3620     0.0716
  2.567          3.432           4.53          0.837           25.2       0.5890     0.1672
  2.578          3.554          25.50          0.830          150.3       0.2240     0.0572
  2.580          1.451          19.31          0.909           16.1       0.8610     0.1533
  2.586          1.051          25.42          0.896          154.5       0.2450     0.0956
  2.603          1.464          19.20          0.906           19.5       0.6490     0.1017
  2.638          3.353          10.54          0.825           87.0       0.5410     0.1182
  2.647          2.088          19.53          0.877           20.6       0.4360     0.0866
  2.658          1.009          28.56          0.886          153.2       0.4500     0.1289
  2.658          3.301           1.67          0.825           88.6       0.7700     0.1822
  2.667          3.308           7.64          0.821           91.5       0.6890     0.1387
  2.668          3.296           4.93          0.821          127.6       1.2060     0.3020
  2.671          1.429          16.48          0.898           21.0       0.8600     0.1159
  2.673          1.413          16.35          0.897           21.9       0.9320     0.1490
  2.685          3.269          13.54          0.818           91.5       0.4310     0.0902
  2.701          2.020          16.48          0.870           22.2       0.6560     0.1010
  2.703          3.256          16.31          0.814           94.7       0.5080     0.1033
  2.737          3.268          19.52          0.806           97.7       0.1960     0.0567
  2.738          1.386          13.55          0.887           21.2       1.1320     0.1867
  2.741          1.396          13.51          0.888           22.0       1.4870     0.1729
  2.750          3.241           4.76          0.808          155.7       0.5720     0.1630
  2.782          1.956          13.62          0.857           26.3       0.9320     0.1375
  2.802          3.154           6.98          0.798          154.6       0.8090     0.1897
  2.813          1.339          10.48          0.876           24.8       1.7780     0.2476
  2.817          1.344          10.49          0.876           24.3       1.6000     0.1912
  2.845          1.913          10.61          0.846           23.2       1.5720     0.2059
  2.885          1.294           7.52          0.863           24.2       1.9380     0.2950
  2.889          3.001          10.89          0.784          150.7       0.1980     0.0733
  2.895          1.304           7.46          0.862           23.6       2.4180     0.2752
  2.914          1.869           7.52          0.833           23.5       1.5490     0.2399
  2.925          3.016          13.39          0.773          151.9       0.2860     0.1098
  2.949          1.251           7.28          0.854           55.6       3.0720     1.0904
  2.959          1.254           4.47          0.849           24.5       2.7270     0.4459
  2.965          1.275           4.61          0.849           23.2       3.0700     0.3821
  2.983          1.811           4.60          0.819           23.6       1.9590     0.3344
  3.002          2.932          16.16          0.755          158.2       0.2610     0.0830
  3.048          1.208           4.23          0.829           79.5       3.5510     1.0411
  3.062          1.213           4.28          0.830           82.3       2.3610     0.5257
  3.063          1.187           1.98          0.826           79.8       2.8040     0.4304
  3.070          1.193          13.46          0.823           84.8       0.7490     0.1273
  3.073          1.194          10.46          0.821           87.1       1.2270     0.1834
  3.077          1.725          13.41          0.795           84.7       0.7320     0.1018
  3.079          1.187           4.59          0.823           84.7       2.5250     0.4064
  3.080          1.209          10.45          0.823           86.3       1.3650     0.1565
  3.082          1.198           1.97          0.825           80.8       3.0910     0.3772
  3.087          1.201           4.60          0.823           89.9       2.4900     0.3039
  3.090          1.211           7.58          0.821           88.1       1.9260     0.2193
  3.090          1.718           4.60          0.794           84.8       1.7480     0.2721
  3.091          1.182           7.52          0.819           91.5       1.9900     0.2836
  3.091          1.721          16.49          0.790           84.8       0.5300     0.0846
  3.093          1.712           1.92          0.794           86.7       2.5190     0.3698
  3.094          1.207          13.36          0.818           86.6       1.0160     0.1227
  3.099          1.725          10.28          0.780           86.9       1.0870     0.1541
  3.113          1.704          19.37          0.782           85.6       0.5860     0.1072
  3.118          1.698           7.47          0.787           93.2       1.5760     0.2171
  3.124          1.197          16.20          0.810           87.9       0.5080     0.0821
  3.174          1.168          18.99          0.794           89.7       0.4160     0.1450
  3.183          1.119           4.46          0.798          148.3       1.4460     0.3452
  3.197          1.632           4.39          0.768          157.6       1.1460     0.2845
  3.207          1.091          16.41          0.789          100.8       0.4490     0.1048
  3.211          1.139           4.44          0.793          152.8       1.9960     0.3400
  3.277          1.074           7.39          0.772          151.8       0.9560     0.2588
  3.281          1.087           7.42          0.774          150.5       1.2560     0.2304
  3.283          1.568           7.67          0.743          149.7       1.3580     0.2976
  3.349          1.526          10.46          0.724          147.5       1.0100     0.2425
  3.365          1.037          10.31          0.749          151.3       0.6950     0.1836
  3.484          0.976          13.66          0.707          141.0       0.4150     0.1352
