# :::::::::::::::::::::::::::::::::::
# ::          CEA (pi+ n)          ::
# :::::::::::::::::::::::::::::::::::

# C. N. Brown et al., Phys. Rev. D 8, 92 (1973)


$vars: w (GeV) & qsquared (GeV^2) & thetacm (deg) & epsilon & phi (deg) & diff_phi


# W (GeV)    Q^2 (GeV^2)    theta (deg)        epsilon      phi (deg)       sigma_phi (ub/sr)
# -------    -----------    -----------        -------      ---------       -----------------
  1.684          0.340          12.44          0.961           14.1       6.4200     2.3368
  1.697          0.324          10.43          0.967           15.0      12.5200     1.5512
  1.717          0.365          19.86          0.961            7.2       6.0900     2.6116
  1.721          0.311           8.34          0.959           16.9      13.8700     1.3060
  1.735          1.486          27.40          0.879            6.8       1.2000     0.3267
  1.742          0.364          18.22          0.958            6.3       4.3300     1.3708
  1.747          0.991          26.10          0.913            2.6       1.9500     0.7576
  1.751          0.305           6.04          0.956           16.3      14.5200     1.4001
  1.761          0.303           5.98          0.955           29.5      14.8800     1.2091
  1.764          0.337          15.54          0.957            6.8       7.3000     1.1710
  1.774          0.295           4.22          0.953           17.8      14.3300     1.8829
  1.784          0.293           4.21          0.952           33.9      14.3400     1.4696
  1.795          0.488           7.76          0.939           14.5       7.4400     1.0344
  1.797          0.961          22.40          0.906            2.6       2.5700     0.6164
  1.798          0.299           3.04          0.950           18.0      17.0600     2.4378
  1.804          0.298           3.05          0.949           32.7      14.5100     1.6289
  1.805          1.437          22.60          0.868            3.6       1.1700     0.3854
  1.807          0.362          17.70          0.953            5.7       5.6500     1.5514
  1.808          0.331          13.07          0.952            8.9       8.0700     1.7667
  1.808          0.331          13.07          0.952            8.9       6.9000     0.9860
  1.811          0.290           1.85          0.949           15.8      12.1300     2.2702
  1.812          0.476           6.56          0.937           15.0       9.9400     1.1397
  1.813          0.290           1.85          0.949           32.5      13.3200     1.7871
  1.814          0.476           6.55          0.937           17.8       9.8500     1.0936
  1.815          0.228          15.10          0.937            3.6       7.1000     1.4727
  1.826          0.951          20.30          0.902            5.1       2.1400     0.4458
  1.827          0.472           5.41          0.935           16.7       9.9700     1.1056
  1.831          0.475          11.38          0.934            8.9       6.2300     0.9444
  1.832          0.471           5.39          0.934           24.9      10.5000     1.0359
  1.835          0.342          15.50          0.950            6.3       5.8800     1.0796
  1.835          0.476          17.31          0.934            4.4       3.5600     0.7655
  1.836          1.430          20.30          0.861            4.4       2.3400     0.4584
  1.840          0.289           1.89          0.945           85.4      16.5200     2.9532
  1.841          0.466           4.28          0.933           16.3      10.0200     1.1506
  1.842          0.354          15.50          0.940            4.4       4.1400     0.7456
  1.845          0.290           0.81          0.944           87.1      10.6700     1.5457
  1.846          0.296           1.93          0.943           86.3      14.1400     2.5038
  1.848          0.289           3.02          0.944           94.4      12.4000     1.9155
  1.848          0.292           3.06          0.943           90.9      11.2000     1.8176
  1.848          0.465           4.23          0.932           29.8       9.8200     0.9487
  1.849          0.295           4.14          0.943           87.6       9.5900     1.5995
  1.850          0.290           4.16          0.943           93.1      14.9900     2.0345
  1.851          0.322          10.60          0.947           12.8       6.6200     1.5922
  1.851          0.322          10.60          0.947           12.8       8.1900     0.9268
  1.851          0.469          10.18          0.931            9.9       9.2400     1.0951
  1.853          0.218          12.90          0.930            5.7       5.7600     0.8326
  1.853          0.471          16.18          0.931            5.7       3.5200     0.6782
  1.860          0.462           3.05          0.930           17.6      10.8900     1.3501
  1.866          0.941          17.80          0.894            4.4       2.6100     0.4344
  1.867          0.287           1.84          0.941          143.5      11.8300     1.8016
  1.867          0.461           3.04          0.929           34.1      11.0800     1.0622
  1.872          0.286           1.86          0.940          162.9      10.9800     2.4651
  1.872          0.463          14.96          0.928            5.7       4.8800     0.7125
  1.872          0.467           8.92          0.928           12.3       7.8000     0.9521
  1.875          1.396          17.90          0.854            5.7       1.8800     0.3746
  1.877          0.463          20.90          0.928            3.6       3.4400     0.6962
  1.878          0.334          13.00          0.945            8.1       4.7800     0.8231
  1.878          0.455           1.82          0.928           19.1      10.9100     1.6342
  1.881          0.455           1.85          0.927           33.7       9.9000     1.1474
  1.886          0.346          13.20          0.934           22.8       5.6300     0.7200
  1.887          0.285           3.02          0.938          145.0      12.3200     1.3694
  1.890          0.457           7.74          0.926           14.1       9.9400     1.0445
  1.891          0.281           3.03          0.937          162.5      11.4100     1.7094
  1.893          0.458          13.78          0.925            7.2       5.0800     0.6892
  1.894          0.320           8.40          0.941           14.5       6.5200     1.4840
  1.894          0.320           8.40          0.941           14.5       9.8000     0.9481
  1.895          0.456          19.87          0.925            3.6       3.3900     0.6474
  1.897          0.211          10.70          0.921            7.7       7.5600     0.7632
  1.901          0.923          15.50          0.888            6.3       3.8600     0.4885
  1.906          0.453           1.85          0.923           91.2      10.9600     1.5426
  1.908          0.451           0.80          0.922           94.0      11.0500     1.1532
  1.908          0.457           1.81          0.922           88.4      13.3600     1.7607
  1.909          0.283           4.22          0.934          147.1       9.3800     1.0461
  1.909          0.449           2.91          0.922           90.4      10.8800     1.3678
  1.909          0.452           2.98          0.922           88.6      12.7400     1.7467
  1.912          0.448           3.98          0.922           93.1      14.3000     2.4308
  1.912          1.364          15.40          0.848            7.2       1.4700     0.2914
  1.913          0.453           4.17          0.921           91.6      11.4600     1.5994
  1.913          0.457           6.60          0.921           15.6       9.6700     1.0027
  1.914          0.450          12.54          0.922            7.2       6.0800     0.7399
  1.916          0.281           4.23          0.933          160.6      10.0300     1.4676
  1.917          0.457           6.59          0.920           20.3      10.3700     1.0071
  1.925          0.462          18.47          0.919            4.4       2.7000     0.5890
  1.930          0.450           5.39          0.919           16.5      11.0700     1.1032
  1.933          0.448           1.88          0.918          145.8      10.2100     1.0523
  1.935          0.312           6.07          0.935           16.5      12.4300     1.9629
  1.935          0.312           6.07          0.935           16.5      11.2700     1.0682
  1.935          0.450           5.37          0.917           24.4      10.6300     0.9668
  1.936          0.277           6.00          0.930          148.5      10.0700     0.8165
  1.936          0.340          10.60          0.925           10.3       7.7100     0.7677
  1.938          0.448          17.42          0.917            4.4       3.2800     0.5788
  1.938          0.452          11.38          0.917            8.9       6.7500     0.7399
  1.939          0.448           1.91          0.917          163.1       9.2500     1.2575
  1.939          0.903          13.00          0.881            8.1       3.5700     0.4189
  1.943          0.310           4.03          0.934           26.6      12.7900     1.6749
  1.943          0.310           4.03          0.934           26.6      10.8800     0.9362
  1.946          1.349          13.10          0.840            7.7       1.7600     0.2868
  1.947          0.276           6.05          0.928          162.2       9.5500     0.9404
  1.949          0.445           3.02          0.915          148.4       9.7300     0.8497
  1.949          0.446           4.23          0.915           15.8      11.5900     1.1691
  1.952          0.445           3.00          0.914          162.2      10.1200     1.0753
  1.954          0.206           8.30          0.907           11.2       9.3400     0.7673
  1.957          0.444           4.22          0.914           29.2      11.6200     1.0007
  1.958          0.441          10.15          0.914           10.6       7.6800     0.7420
  1.963          0.444          16.26          0.912            5.1       3.4700     0.5633
  1.968          0.438           4.26          0.911          147.8      10.4800     0.8392
  1.970          0.440           3.05          0.911           17.8      12.3400     1.3267
  1.972          0.306           4.20          0.929           17.8      12.5200     2.8155
  1.972          0.306           4.20          0.929           17.8      10.4800     1.4129
  1.972          0.332          10.70          0.938            9.9       7.4800     0.8379
  1.975          0.321           8.30          0.931           13.8       9.8700     0.9097
  1.975          0.437           3.04          0.910           31.9      12.3400     1.0956
  1.975          0.883          10.70          0.874           10.6       4.8800     0.4817
  1.976          0.329           8.40          0.918           13.6       9.9600     0.8273
  1.977          0.438           4.25          0.910          163.3       9.6000     0.9172
  1.980          0.305           4.18          0.927           32.7      11.9100     2.1807
  1.980          0.305           4.18          0.927           32.7      12.0100     1.2575
  1.980          1.322          10.70          0.832           10.9       2.1400     0.3130
  1.981          0.439           9.02          0.909           12.8       9.7700     0.8511
  1.985          0.295           3.02          0.925           16.0      11.4000     3.2314
  1.985          0.295           3.02          0.925           16.0      11.9400     1.7666
  1.986          0.433           1.86          0.908           18.0      14.1400     1.7970
  1.989          0.437           5.38          0.907          152.2       8.5400     0.6860
  1.989          0.438          15.04          0.907            6.3       3.9200     0.5629
  1.991          0.292           3.03          0.926           31.9      12.6600     2.4798
  1.991          0.292           3.03          0.926           31.9      11.3400     1.3259
  1.991          0.434           1.85          0.907           33.1      12.1800     1.2287
  1.992          0.269           8.41          0.920          163.3       7.8700     0.7561
  1.994          0.431          21.01          0.907            3.6       2.4200     0.3651
  1.995          0.435           5.41          0.906          163.7       8.3700     0.7483
  2.006          0.432           7.80          0.904           15.0       8.7700     0.7698
  2.009          0.197           6.00          0.895           15.2      10.7100     0.7991
  2.009          0.429           6.58          0.903          154.7       8.1700     0.6431
  2.011          0.430          13.84          0.903            7.7       4.9800     0.5877
  2.012          0.866           8.40          0.865           13.8       5.7000     0.5082
  2.014          0.301           1.94          0.921           18.0       9.3600     4.0429
  2.014          0.301           1.94          0.921           18.0      14.8500     2.5352
  2.014          0.426           6.60          0.902          163.9       7.7400     0.6720
  2.016          0.197           5.90          0.893           20.4      11.0900     0.7951
  2.018          0.312           6.00          0.924           15.4      11.6700     1.0101
  2.019          0.299           1.92          0.921           33.6      11.3900     2.8887
  2.019          0.299           1.92          0.921           33.6      14.1800     1.8341
  2.019          0.428           1.91          0.901           88.3       9.8700     1.3720
  2.019          1.292           8.40          0.823           12.6       3.0600     0.3616
  2.020          0.426           0.81          0.901           93.0      11.0600     1.0863
  2.020          0.429           1.86          0.901           89.5      12.4800     1.6405
  2.021          0.425          19.77          0.901            4.4       2.2300     0.3427
  2.022          0.430           2.99          0.900           90.3       8.8600     1.2859
  2.023          0.425           4.11          0.900           91.1       9.7100     1.3135
  2.023          0.428           3.01          0.900           89.9      10.9200     1.3598
  2.025          0.427           4.14          0.900           91.3      12.4100     1.8598
  2.027          0.310           6.00          0.922           25.3      11.3900     0.9100
  2.027          0.427           6.56          0.900           14.3       9.9000     0.8403
  2.029          0.320           6.00          0.907           15.6      11.4900     0.8994
  2.032          0.261          10.68          0.912          164.4       5.9900     0.6326
  2.032          0.426           6.54          0.899           20.9      10.2100     0.8218
  2.033          0.285           1.93          0.919           86.8       8.0000     3.7459
  2.033          0.285           1.93          0.919           86.8       6.8400     1.7021
  2.035          0.319           5.90          0.923           22.6      11.0100     0.8180
  2.036          0.424           7.80          0.897          163.9       6.9900     0.5919
  2.036          0.425          12.60          0.897            8.5       6.0700     0.6349
  2.042          0.292           3.05          0.916           81.8      11.8900     3.4230
  2.042          0.292           3.05          0.916           81.8       7.5500     1.4603
  2.042          0.419          18.55          0.896            4.4       3.0800     0.3799
  2.043          0.289           0.82          0.916           85.6      11.7700     2.8446
  2.043          0.289           0.82          0.916           85.6      11.6500     1.6495
  2.048          0.423           1.84          0.895          146.2      10.0000     0.9957
  2.049          0.192           4.20          0.884           15.4      11.7800     1.0608
  2.049          0.423           5.41          0.895           16.3      10.6800     0.8910
  2.051          0.287           4.19          0.915           90.3      12.2600     3.5447
  2.051          0.287           4.19          0.915           90.3      11.3400     1.9050
  2.052          0.295           2.97          0.914           88.3      11.4400     3.4086
  2.052          0.295           2.97          0.914           88.3       8.4400     1.7622
  2.052          0.421           1.85          0.894          162.4      10.5100     1.2960
  2.052          0.846           6.00          0.856           15.0       6.0900     0.5372
  2.053          0.307           4.30          0.917           15.0      11.1700     1.3038
  2.055          0.191           4.20          0.882           25.2      10.8600     0.8976
  2.055          0.416           9.02          0.893          164.6       6.4900     0.5436
  2.055          0.421           5.40          0.893           24.3      10.7100     0.8267
  2.057          0.298           1.88          0.913           89.0       6.9300     3.1333
  2.057          0.298           1.88          0.913           89.0       7.5300     1.6140
  2.057          1.262           6.00          0.814           16.7       3.4800     0.3989
  2.058          0.291           4.04          0.913           90.1       6.7900     3.9079
  2.058          0.291           4.04          0.913           90.1       9.8000     2.0521
  2.059          0.418          11.41          0.892            9.2       7.8600     0.7314
  2.059          0.843           5.90          0.854           23.5       6.2900     0.5065
  2.060          0.305           4.30          0.916           28.5      10.6300     1.0649
  2.063          1.259           5.90          0.812           23.9       3.7300     0.3801
  2.064          0.314           4.20          0.900           16.5      12.5000     1.2384
  2.066          0.415           3.02          0.891          145.8       9.2400     0.8094
  2.069          0.414          17.43          0.890            5.7       3.3700     0.4049
  2.070          0.416           4.23          0.890           16.1      11.5200     0.9895
  2.072          0.312           4.20          0.898           28.5      11.9900     1.0291
  2.074          0.416           3.05          0.889          162.2       8.6100     0.9383
  2.075          0.285           1.80          0.910          143.5       9.0500     2.7947
  2.075          0.285           1.80          0.910          143.5       5.6200     1.1715
  2.076          0.411          10.19          0.888          165.0       5.7500     0.4792
  2.077          0.299           3.10          0.913           17.8      12.4400     1.5493
  2.077          0.414           4.20          0.888           28.7      11.0100     0.8525
  2.077          0.419          17.41          0.888            2.6       1.9900     1.3046
  2.078          0.187           3.00          0.876           16.7       9.8300     0.9990
  2.081          0.284           1.71          0.909          162.5       7.3100     3.6522
  2.081          0.284           1.71          0.909          162.5       5.7600     1.6998
  2.082          0.835           4.20          0.848           16.9       7.0600     0.8005
  2.084          0.413          10.22          0.887           11.2       8.4600     0.7672
  2.085          1.240           4.20          0.807           15.2       5.1100     0.7266
  2.086          0.187           3.00          0.873           30.1       9.5700     0.8286
  2.086          0.298           3.00          0.911           31.2      11.4600     1.1736
  2.087          0.408           4.20          0.886          148.4       8.9800     0.7467
  2.087          0.830           4.20          0.847           28.8       6.6600     0.6608
  2.088          0.308           3.00          0.894           17.2      10.4300     1.1790
  2.090          0.253          13.21          0.899          168.2       6.0000     0.6673
  2.090          1.237           4.20          0.805           26.0       4.5500     0.5502
  2.092          0.410           3.01          0.885           17.6      10.8100     1.0129
  2.095          0.305           3.00          0.893           32.1      10.9400     1.0090
  2.095          0.406           4.22          0.884          164.1       8.0600     0.8034
  2.099          0.292           1.90          0.909           19.9      13.6900     2.1090
  2.100          0.407          11.38          0.882          165.2       5.3200     0.4486
  2.100          0.408           3.00          0.883           32.3      11.0900     0.8769
  2.100          0.408          16.17          0.882            5.7       3.8900     0.4188
  2.100          0.825           3.00          0.843           13.8       6.9000     0.8854
  2.104          0.185           1.90          0.867           17.2       9.3400     1.1869
  2.104          0.286           2.90          0.903          143.6       6.1400     1.7528
  2.104          0.286           2.90          0.903          143.6       6.9400     1.0145
  2.105          0.294           1.90          0.907           33.6      13.0500     1.5378
  2.105          0.820           3.00          0.842           28.7       6.3000     0.6671
  2.106          1.228           3.00          0.800           17.6       3.4700     0.6296
  2.110          0.406           9.02          0.880           11.8       7.8100     0.7137
  2.110          1.226           3.00          0.799           32.1       3.5000     0.4987
  2.111          0.183           1.90          0.865           33.4       9.5200     0.9312
  2.111          0.300           1.90          0.889           18.0      11.3100     1.5503
  2.111          0.406           5.40          0.880          151.3       7.8300     0.6523
  2.112          0.420          15.96          0.878            2.6       2.7900     0.9722
  2.114          0.404           1.84          0.879           15.6      10.2700     1.1835
  2.115          0.298           1.80          0.888           33.9      11.0700     1.2138
  2.116          0.289           2.93          0.900          160.9       7.3800     2.3947
  2.116          0.289           2.93          0.900          160.9       6.8600     1.3633
  2.118          0.402           1.84          0.878           32.0      10.0700     0.9404
  2.118          0.815           1.90          0.838           14.3       7.2800     1.0865
  2.119          0.404           5.43          0.877          162.7       8.0500     0.7700
  2.121          1.202           1.70          0.798           18.4       4.2200     0.8715
  2.122          0.400          12.58          0.877          166.2       4.5000     0.3889
  2.122          0.408          15.00          0.876            2.6       3.9400     0.7423
  2.122          0.812           1.90          0.837           31.1       7.0500     0.8266
  2.122          1.202           1.80          0.797           27.1       2.8900     0.5151
  2.123          0.277           4.24          0.899          147.6       5.0900     1.3591
  2.123          0.277           4.24          0.899          147.6       7.8700     0.9897
  2.125          0.402          14.98          0.876            6.3       3.5200     0.3740
  2.129          0.275           4.30          0.898          163.5       6.0500     1.8698
  2.129          0.275           4.30          0.898          163.5       7.4200     1.2391
  2.133          0.343          15.44          0.888          170.7       3.8400     0.6645
  2.135          0.400           6.57          0.873          154.4       6.5500     0.5687
  2.137          0.398           7.77          0.873           13.6       7.6500     0.6925
  2.139          0.293           4.10          0.899           82.1       6.3200     1.0493
  2.141          0.397           6.57          0.872          163.3       6.4100     0.6036
  2.143          0.287           1.90          0.899           89.0       9.6000     1.2927
  2.143          0.290           0.80          0.899            0.0       6.9600     1.0428
  2.144          0.394           4.13          0.871           84.1      10.4300     1.5873
  2.145          0.800           4.10          0.831           86.9       8.2200     1.1524
  2.146          0.394          13.76          0.870          167.2       4.2900     0.3817
  2.147          0.176           0.80          0.853            0.0       7.4200     0.7675
  2.147          0.294           0.80          0.880            0.0       8.0500     0.9407
  2.147          0.395          13.78          0.870            6.3       4.2000     0.4277
  2.147          1.192           3.00          0.789           87.3       3.2500     0.5783
  2.148          0.176           4.00          0.852           85.1       9.5300     1.3832
  2.148          0.178           3.00          0.852           86.0       8.4000     0.9499
  2.148          0.297           1.90          0.879           86.7       6.7200     0.8722
  2.148          1.197           4.00          0.787           86.2       4.3900     0.8933
  2.149          0.394           4.15          0.870           85.8       9.1600     1.1827
  2.149          0.395           1.77          0.870           87.0       8.7900     1.0570
  2.150          0.295           3.00          0.879           88.2       9.1200     1.0479
  2.150          0.396           0.81          0.870           87.6       8.9800     0.8404
  2.150          0.793           1.80          0.830           89.1       7.4800     0.8907
  2.150          0.795           0.80          0.830            0.0       7.2500     0.7969
  2.151          0.398           2.93          0.869           86.8      10.1400     1.2781
  2.151          0.799           3.00          0.829           90.8       6.2400     0.7886
  2.152          0.292           3.00          0.896           89.4       9.9800     1.1760
  2.152          1.188           0.70          0.788            0.0       3.8200     0.5794
  2.153          0.396          13.76          0.868            3.6       4.3100     0.6731
  2.153          1.191           1.90          0.787           89.0       4.1000     0.7164
  2.154          0.178           1.90          0.850           88.0       6.1800     0.7782
  2.155          0.294           4.10          0.877           88.2       9.9300     1.2821
  2.155          0.400           1.82          0.868           86.4       7.8200     1.0337
  2.156          0.397           2.99          0.868           90.4       8.6800     0.9924
  2.163          0.389           7.78          0.866          164.6       5.6500     0.5469
  2.164          0.392           6.61          0.866           14.8       8.5400     0.7699
  2.166          0.391           6.58          0.865           16.7       8.5600     0.7548
  2.172          0.273           5.99          0.887          154.4       2.7600     0.8241
  2.172          0.273           5.99          0.887          154.4       5.2800     0.6131
  2.172          0.388          15.02          0.863          168.5       3.7000     0.3543
  2.174          0.227          17.70          0.878          170.4       2.2400     1.2760
  2.176          0.383          12.51          0.862            4.4       4.6900     0.6075
  2.177          1.170           1.80          0.780          145.0       3.3200     0.5511
  2.178          0.385          12.55          0.862            6.3       4.3700     0.4412
  2.179          0.284           1.90          0.890          144.8       8.3600     1.1922
  2.179          0.777           1.90          0.821          147.8       6.1900     0.7605
  2.180          1.166           1.80          0.779          164.1       3.0800     0.7202
  2.181          0.274           6.03          0.885          162.2       2.0800     0.9072
  2.181          0.274           6.03          0.885          162.2       5.7100     0.7219
  2.182          0.284           1.80          0.889          162.5       7.4100     1.5351
  2.183          0.287           1.80          0.869           16.9       5.3200     1.1479
  2.183          0.775           1.90          0.820          162.5       6.5900     1.0543
  2.184          0.290           1.80          0.869          142.2       7.1100     0.9356
  2.184          0.389           1.85          0.860          144.3       8.7700     0.8501
  2.187          0.384           5.43          0.859           15.8       8.9600     0.8398
  2.189          0.386           1.85          0.859           18.4       7.8000     1.0333
  2.190          0.385           9.01          0.858          164.4       5.0100     0.4940
  2.192          0.174           1.90          0.836          146.1       5.4900     0.6539
  2.192          0.383           5.40          0.858           21.1       9.1400     0.7982
  2.192          0.775           3.00          0.817          144.9       5.5500     0.6116
  2.196          0.382          16.22          0.856          170.1       3.5200     0.3404
  2.196          1.150           3.00          0.774          147.3       3.5300     0.5271
  2.197          0.173           1.80          0.834          162.2       5.1900     0.8494
  2.199          0.769           3.00          0.815          162.0       5.1900     0.7467
  2.202          1.150           3.00          0.772          160.9       3.3100     0.6558
  2.204          0.378          11.39          0.855            7.7       5.6000     0.6304
  2.205          0.382           3.01          0.854          154.7       7.0900     0.6420
  2.206          0.380          11.40          0.853            6.8       5.6800     0.5396
  2.207          0.279           3.00          0.883          146.2       6.1600     0.8412
  2.211          0.276           3.00          0.882          163.1       6.8600     1.1629
  2.212          0.284           3.00          0.860          147.1       5.8200     0.7067
  2.212          0.376          10.19          0.851          165.9       5.2000     0.5164
  2.212          0.378           4.22          0.852           16.0      10.4500     0.9851
  2.214          0.379           3.04          0.851          162.5       6.5100     0.7509
  2.214          0.760           4.20          0.810          149.9       5.8800     0.6209
  2.217          0.168           3.00          0.826          146.3       3.5900     0.4732
  2.217          0.376           4.21          0.850           23.5       9.6300     0.8462
  2.219          0.377          17.36          0.849          170.7       3.3100     0.3340
  2.219          1.138           4.30          0.766          154.5       3.8300     0.5059
  2.220          0.283           3.00          0.858          164.1       5.1000     0.8289
  2.220          0.757           4.20          0.808          162.5       5.8800     0.7350
  2.223          1.135           4.30          0.765          163.1       4.2200     0.6433
  2.230          0.376           4.19          0.846          149.5       6.5300     0.5836
  2.231          0.262           8.28          0.872          165.9       4.7400     1.2182
  2.231          0.262           8.28          0.872          165.9       3.7900     0.5695
  2.231          0.275           4.20          0.877          147.7       6.1000     0.7762
  2.233          0.168           3.00          0.819          161.8       3.1900     0.5583
  2.233          0.372          10.16          0.845            7.2       5.4100     0.5647
  2.234          0.163           4.10          0.819          143.8       3.3500     0.5048
  2.234          0.370          10.20          0.844            8.5       5.9300     0.5477
  2.236          0.278           4.20          0.853          147.3       5.0000     0.6060
  2.238          0.371           3.03          0.843           16.3       8.9300     0.9904
  2.239          0.374           4.20          0.843          163.5       6.0900     0.6440
  2.240          0.374          11.41          0.842          168.0       4.8600     0.5063
  2.244          0.370           3.03          0.841           27.5       8.2000     0.7994
  2.246          0.367          18.59          0.940          171.9       3.2600     0.3495
  2.247          0.276           4.30          0.872          162.5       5.7600     0.9259
  2.247          0.277           4.30          0.849          161.6       4.7000     0.7181
  2.248          0.742           5.90          0.799          158.3       5.7800     0.4803
  2.250          1.111           6.00          0.756          159.9       3.4400     0.3632
  2.252          0.740           5.90          0.798          164.1       5.6900     0.5158
  2.253          1.111           6.00          0.755          164.4       3.5200     0.4088
  2.255          0.160           4.00          0.810          163.5       2.2800     0.4864
  2.256          0.366           5.40          0.838          154.4       5.4000     0.4982
  2.260          0.361           8.98          0.836            8.1       5.5500     0.5273
  2.263          0.363           9.01          0.835            8.9       5.5300     0.5349
  2.263          0.365           5.42          0.835          163.3       5.1600     0.5405
  2.268          0.362           1.83          0.833           17.8      10.6200     1.3346
  2.269          0.365          12.61          0.832          169.4       3.3900     0.4054
  2.270          0.360          19.82          0.932          172.7       2.3800     0.2822
  2.272          0.266           5.90          0.865          153.4       5.1800     0.5411
  2.273          0.248          10.43          0.860          167.2       4.3900     1.9748
  2.273          0.248          10.43          0.860          167.2       3.3300     0.8695
  2.273          0.363           1.82          0.831           32.2       9.7900     0.9978
  2.282          0.269           6.00          0.838          157.1       4.3800     0.4929
  2.282          0.358           3.89          0.828           80.5       8.0300     2.9137
  2.285          0.265           6.00          0.862          163.7       4.9100     0.5771
  2.285          0.364           2.84          0.827           73.5       4.3100     1.7164
  2.288          0.359           6.56          0.826          160.2       5.3300     0.5371
  2.289          0.269           6.10          0.835          164.4       4.3300     0.5269
  2.291          0.361          13.70          0.825          170.7       2.6300     0.3695
  2.292          0.359           6.58          0.825          165.0       4.9700     0.5265
  2.294          0.356           7.81          0.824           10.3       7.4800     0.6322
  2.295          0.354           7.81          0.823           10.3       6.7900     0.6484
  2.295          0.355          20.90          0.923          172.7       1.5100     0.2352
  2.297          1.069           8.60          0.739          168.8       2.9900     0.3509
  2.299          0.716           8.20          0.781          167.9       4.3900     0.4335
  2.300          0.154           5.80          0.790          159.5       3.0700     0.4527
  2.304          0.153           5.80          0.788          162.4       3.0900     0.4717
  2.304          0.355           1.80          0.820           87.4       7.0100     1.1845
  2.311          0.354           0.78          0.818           88.6       8.2600     0.9027
  2.312          0.356           1.75          0.817           86.7       7.9800     1.5437
  2.314          0.348           2.99          0.817           90.5       6.7500     1.2466
  2.315          0.352           7.75          0.817          165.5       4.5900     0.5073
  2.321          0.349          14.96          0.814          172.3       3.5100     0.4532
  2.323          0.348          22.19          0.813          173.7       1.9500     0.2720
  2.324          0.347           6.60          0.813           11.8       8.0000     0.7603
  2.329          0.345           6.57          0.811           14.3       6.9700     0.5761
  2.330          0.345           6.56          0.811           15.0       6.9700     0.5613
  2.336          0.248           8.20          0.846          164.6       3.4600     0.4978
  2.341          1.031          10.80          0.723          170.1       2.0900     0.3027
  2.343          0.255           8.40          0.815          165.0       4.2000     0.6429
  2.343          0.339          23.27          0.806          174.3       1.3300     0.2224
  2.345          0.341           9.00          0.806          169.1       4.2100     0.5061
  2.348          0.343           1.80          0.803          149.8       5.4200     0.7425
  2.349          0.348          16.13          0.802          172.7       2.2900     0.3814
  2.351          0.685          10.80          0.761          171.1       2.9900     0.3509
  2.354          0.334           5.40          0.802           14.1       6.8500     0.7513
  2.355          0.345           1.80          0.800          165.0       6.1900     1.0658
  2.357          0.337           5.40          0.800           14.8       7.0100     0.5556
  2.359          0.142           8.00          0.761          165.2       2.7600     0.8733
  2.362          0.335           5.38          0.798           20.3       7.2600     0.5512
  2.367          0.329           2.98          0.797          146.7       4.1700     0.6330
  2.369          0.334          10.18          0.796          169.7       3.4400     0.4882
  2.376          0.333          24.50          0.792          175.6       1.1500     0.2193
  2.377          0.328           3.01          0.793          165.5       3.3400     0.6851
  2.379          0.329           4.24          0.791           14.8       7.2500     0.9661
  2.381          0.329           4.23          0.790           16.7       6.7900     0.9101
  2.387          0.327           4.24          0.788           15.6       8.1200     0.6411
  2.391          0.995          13.20          0.701          174.3       1.9700     0.3096
  2.392          0.236          10.60          0.828          166.6       3.6600     0.7092
  2.394          0.324           4.27          0.785          156.3       5.1400     0.8863
  2.396          0.322           4.24          0.785          164.4       5.2500     1.0121
  2.396          0.324           4.21          0.784           26.4       7.9100     0.5647
  2.397          0.320           3.20          0.784           16.0      10.3800     1.9456
  2.397          0.661          13.10          0.741          173.7       2.3100     0.3350
  2.399          0.323          11.42          0.784          172.3       4.8200     0.6835
  2.400          0.320           3.22          0.783           23.6       9.3100     1.5472
  2.405          0.327          25.73          0.779          174.9       0.9700     0.2167
  2.418          0.319           3.03          0.774           16.3       8.3700     0.6945
  2.427          0.316           3.02          0.770           29.5       8.0500     0.5835
  2.437          0.635          15.40          0.723          174.9       1.8400     0.3547
  2.439          0.995          15.80          0.680          175.6       1.1900     0.2681
  2.451          0.311           1.88          0.759           17.1       6.5100     0.6231
  2.458          0.309           1.86          0.756           32.0       6.5100     0.5149
  2.470          0.625          17.60          0.707          176.4       0.9000     0.3436
  2.473          0.292           3.96          0.750           76.9       4.1500     1.4481
  2.481          0.902          18.00          0.662          176.4       0.6900     0.2331
  2.489          0.296           4.01          0.741           83.9       5.3600     1.1292
  2.495          0.296           2.99          0.738           86.4       6.2700     0.7007
  2.501          0.296           0.81          0.735           85.3       4.8800     0.4177
  2.501          0.296           1.81          0.735           86.6       5.7400     0.6957
  2.503          0.301           2.97          0.733           86.8       4.5900     0.6694
  2.504          0.293           1.86          0.733           89.5       5.1800     0.6017
  2.517          0.861          20.30          0.644          177.4       1.0600     0.4339
  2.546          0.282           1.85          0.712          144.3       3.3100     0.3424
  2.554          0.280           1.85          0.707          162.5       2.7400     0.3903
  2.577          0.272           3.02          0.694          147.9       2.2700     0.2443
  2.585          0.268           3.00          0.690          165.7       1.8600     0.2609
  2.610          0.261           4.13          0.675          154.5       2.3100     0.2541
  2.618          0.257           4.15          0.670          163.1       2.1900     0.2685
  2.658          0.251           5.34          0.644          163.3       2.2900     0.2710
  2.660          0.250           5.34          0.643          165.7       2.3000     0.2802
  2.697          0.235           6.65          0.619          167.4       1.7000     0.2483
  2.697          0.235           6.65          0.619          167.4       1.7000     0.2483
  2.715          0.227           7.69          0.607          170.1       1.9800     0.3475
  2.742          0.215           8.71          0.589          172.7       1.8000     0.5195
  2.784          0.208          10.26          0.556          175.6       2.0600     1.5442
