# :::::::::::::::::::::::::::::::::::
# ::        Cornell (pi+ n)        ::
# :::::::::::::::::::::::::::::::::::

# C. J. Bebek et al., Phys. Rev. D 9, 5 (1974)


$vars: w (GeV) & qsquared (GeV^2) & thetacm (deg) & epsilon & phi (deg) & diff_phi


# W (GeV)    Q^2 (GeV^2)    theta (deg)        epsilon      phi (deg)       sigma_phi (ub/sr)
# -------    -----------    -----------        -------      ---------       -----------------
  1.820          1.321          21.72          0.964           12.6       1.3600     0.2397
  1.844          1.309          20.20          0.963           17.2       1.6000     0.2469
  1.865          1.292          18.80          0.962           19.4       1.8900     0.2740
  1.885          1.290          17.20          0.960           19.1       2.6100     0.3178
  1.905          1.277          15.74          0.959           20.8       2.6000     0.3092
  1.930          1.267          14.19          0.958           22.2       2.9500     0.3479
  1.949          1.258          12.73          0.957           20.9       2.6100     0.3178
  1.978          1.249          11.22          0.955           24.6       2.9500     0.3399
  1.999          1.245           9.75          0.953           24.8       3.4700     0.3860
  2.023          1.231           8.16          0.952           26.7       4.0100     0.4644
  2.041          1.228           6.76          0.950           23.8       3.9800     0.4712
  2.065          1.225           5.29          0.948           26.1       5.1400     0.6079
  2.084          1.205           3.78          0.947           24.5       3.8800     0.5428
  2.108          1.216           2.41          0.944           27.4       5.8200     0.8978
  2.122          1.204           9.65          0.943           77.8       2.9100     0.6242
  2.130          1.190           6.70          0.943           81.3       2.9800     0.5051
  2.140          1.211           2.29          0.942           89.7       3.8700     0.6221
  2.142          1.192           3.76          0.942           84.4       3.6400     0.4827
  2.143          1.191           3.73          0.942           84.4       4.0700     0.6372
  2.144          1.192           5.28          0.942           89.4       4.3000     0.5006
  2.144          1.192           2.20          0.942           90.7       4.1100     0.8126
  2.146          1.187           1.03          0.942           93.0       4.5400     0.6701
  2.150          1.189           8.29          0.941           89.7       3.6100     0.3847
  2.152          1.201           6.76          0.940           90.6       4.0000     0.4328
  2.154          1.194           8.18          0.940           88.7       4.2000     0.6772
  2.159          1.193           9.69          0.940           91.9       3.6400     0.3936
  2.160          1.187           5.19          0.940           96.2       3.7400     0.5911
  2.168          1.189          11.20          0.939           93.7       2.7600     0.3081
  2.173          1.187          12.73          0.938           93.7       2.5900     0.3008
  2.175          1.186           2.25          0.939          154.3       3.7800     0.6649
  2.181          1.185          14.12          0.937           94.5       2.6000     0.3092
  2.193          1.182          15.68          0.936           95.6       2.7700     0.3489
  2.205          1.187           3.82          0.935          155.0       4.1500     0.5956
  2.228          1.175          17.17          0.932          100.0       2.0700     0.3064
  2.230          1.159           5.27          0.934          154.7       4.1800     0.5368
  2.258          1.157           6.78          0.930          154.0       3.1200     0.3874
  2.275          1.154          18.72          0.927          106.1       2.0800     0.3607
  2.277          1.143           8.27          0.929          154.0       3.2900     0.3943
  2.307          1.145           9.75          0.925          152.7       2.3300     0.2902
  2.327          1.390           6.85          0.913           26.7       6.0100     1.5579
  2.334          1.122          11.16          0.922          155.9       2.7500     0.3235
  2.344          0.720          14.16          0.923           20.8       3.2600     0.5315
  2.344          1.126          20.13          0.919          114.6       1.2900     0.3037
  2.347          0.729          15.59          0.922           24.1       3.6700     0.8212
  2.355          1.358          17.12          0.909           30.6       2.2400     0.4955
  2.360          1.112          12.76          0.919          154.4       1.9100     0.2406
  2.363          1.379           5.25          0.908           24.1       4.0800     0.9442
  2.368          1.361          15.49          0.908           26.4       1.4000     0.3156
  2.379          1.109          14.17          0.916          152.9       1.8600     0.2222
  2.381          1.366           3.79          0.906           26.9       3.6000     0.7252
  2.390          0.715          12.65          0.917           23.9       4.5100     0.6083
  2.393          1.333          14.25          0.905           29.7       1.9100     0.3284
  2.401          1.355           2.28          0.903           28.4       3.8800     0.9593
  2.410          1.328          12.67          0.902           25.2       2.3200     0.3324
  2.412          1.093          15.81          0.912          154.3       1.5700     0.1941
  2.417          0.699          11.21          0.913           24.8       4.4600     0.5153
  2.417          1.346          12.69          0.901          158.4       1.6300     0.3116
  2.428          1.328          23.04          0.899           23.6       0.9100     0.2099
  2.438          1.322          14.28          0.898          156.8       1.0300     0.1847
  2.439          1.083          17.17          0.908          153.0       0.9000     0.1355
  2.442          1.320          11.13          0.897           25.7       2.0700     0.2718
  2.443          1.328          21.62          0.897           20.8       0.5100     0.1252
  2.446          2.192          12.77          0.859           25.6       1.0100     0.2216
  2.450          1.322           3.90          0.897           89.6       4.1500     0.6756
  2.451          0.683           9.69          0.908           26.2       5.3400     0.5475
  2.451          1.325           2.23          0.896           94.8       3.5100     0.7636
  2.458          1.314           0.96          0.896           94.2       3.6300     0.6150
  2.458          1.318          20.24          0.895           19.8       0.7300     0.1304
  2.460          2.193          11.25          0.856           27.2       1.3700     0.2400
  2.461          1.316           5.30          0.895           94.8       3.4900     0.5033
  2.463          1.069          18.79          0.905          152.1       0.9800     0.1382
  2.465          1.306          15.69          0.895          159.1       0.9000     0.1627
  2.466          1.301           2.43          0.896          103.2       3.8600     0.7972
  2.466          1.302           9.73          0.894           23.6       2.8900     0.3294
  2.468          1.310           5.20          0.894           98.0       3.0200     0.6522
  2.470          1.330           3.77          0.893           99.7       3.3800     0.6636
  2.473          1.303           8.22          0.893           97.6       2.6300     0.3520
  2.477          1.298           6.76          0.893          100.2       3.2000     0.4411
  2.478          0.679           8.24          0.903           24.9       5.5600     0.5510
  2.486          1.303           9.65          0.891           99.4       3.0000     0.3828
  2.490          1.286           8.26          0.891           25.4       2.9800     0.3333
  2.490          2.158           9.59          0.852           23.4       1.2100     0.2080
  2.491          1.289           2.34          0.891          156.3       2.8900     0.5767
  2.491          1.295          17.16          0.891          159.7       0.7500     0.1310
  2.491          1.301          11.17          0.890           97.9       1.9600     0.2852
  2.496          1.291           6.62          0.890          106.0       3.4400     0.7782
  2.503          1.285          12.70          0.888          100.8       1.3200     0.2479
  2.504          1.286          18.72          0.889          154.0       0.9900     0.1473
  2.506          1.277          18.66          0.888           23.8       0.8500     0.1339
  2.508          1.049          20.33          0.898          158.9       0.4600     0.1051
  2.509          0.664           6.78          0.898           26.0       5.5400     0.5429
  2.512          2.145           8.22          0.849           26.2       1.5700     0.2640
  2.518          1.269           6.74          0.887           25.4       3.1900     0.3740
  2.519          1.041          21.71          0.897          150.2       0.6700     0.1288
  2.519          1.287           3.78          0.886          154.0       3.0500     0.4623
  2.524          1.285          17.23          0.885           22.6       0.8700     0.1257
  2.540          2.115           6.67          0.844           27.4       1.6500     0.2845
  2.541          0.652           5.25          0.893           24.9       7.6900     0.7625
  2.541          1.272          20.27          0.883          157.5       0.7000     0.1114
  2.542          1.057          23.22          0.892          146.4       0.6000     0.1271
  2.547          1.251           5.32          0.882           25.6       3.0800     0.3694
  2.555          1.258           5.22          0.881          154.2       2.5100     0.3477
  2.562          2.107           5.23          0.840           25.3       1.6300     0.2931
  2.563          1.253          15.70          0.879           24.4       1.4100     0.1796
  2.571          1.246          14.33          0.878          111.9       1.5800     0.2643
  2.574          1.246           6.73          0.878          156.2       2.5900     0.3336
  2.578          1.245           3.84          0.876           26.4       4.3600     0.5520
  2.579          0.645           3.82          0.886           25.4       5.8700     0.6243
  2.580          1.255          21.67          0.877          159.4       0.4800     0.0868
  2.583          1.223          14.15          0.876           22.0       1.4700     0.1902
  2.592          2.059           3.86          0.835           21.1       1.6200     0.3021
  2.600          0.632           8.14          0.881           69.8       3.6800     0.7178
  2.604          1.232           8.22          0.872          154.3       2.2900     0.2886
  2.604          1.234          15.63          0.872          115.1       2.1700     0.3724
  2.606          1.230           2.31          0.871           27.1       3.6700     0.5890
  2.610          1.212           8.14          0.871           76.4       2.0700     0.4632
  2.612          1.227          23.27          0.871          158.6       0.3300     0.0737
  2.613          2.054           2.31          0.830           22.6       1.4200     0.3638
  2.618          0.631           2.34          0.879           24.6       5.3300     0.6729
  2.620          1.217          12.74          0.869           21.9       1.5300     0.1925
  2.635          1.208           9.69          0.867          155.4       1.5800     0.2113
  2.646          0.617           6.66          0.872           79.6       4.2600     0.5994
  2.648          1.195           6.61          0.863           89.2       3.8700     0.6221
  2.648          1.219          24.67          0.864          161.8       0.3600     0.0744
  2.649          2.019          11.17          0.822           86.9       0.9800     0.1559
  2.653          1.208           2.33          0.862           81.0       3.5300     0.5399
  2.653          2.015           6.61          0.822           82.7       1.4900     0.3652
  2.654          1.209           2.37          0.863           88.2       3.3000     0.6058
  2.654          2.006           2.28          0.823           78.4       1.3800     0.3727
  2.655          2.011           3.92          0.822           90.0       1.6800     0.3129
  2.655          2.017           3.71          0.822           85.8       1.9100     0.4123
  2.656          1.204           6.75          0.861           86.6       3.1400     0.3405
  2.657          1.199          17.21          0.862          121.3       1.2400     0.2931
  2.657          1.205           1.00          0.862           91.9       4.3200     0.5843
  2.657          1.207           3.68          0.862           88.6       3.4600     0.5199
  2.657          1.211           5.28          0.861           82.9       2.8300     0.4553
  2.658          0.621           5.26          0.869           82.5       5.0700     0.6462
  2.658          1.197          11.12          0.860           87.8       2.4400     0.2555
  2.659          1.199           9.72          0.860           88.7       2.3700     0.2522
  2.660          1.200           8.29          0.860           88.7       2.8000     0.2946
  2.661          1.199          11.27          0.861           25.4       2.3100     0.2650
  2.662          0.622           5.32          0.868           83.9       5.0600     0.5050
  2.663          1.198           5.32          0.860           88.7       3.8200     0.4326
  2.663          2.005           5.25          0.820           87.9       2.0000     0.3956
  2.663          2.015           2.31          0.821           91.9       1.7100     0.4367
  2.664          1.998           8.35          0.820           88.5       1.0900     0.1773
  2.664          2.000           1.03          0.819           88.4       1.7800     0.3434
  2.665          1.200           3.78          0.860           92.3       4.1100     0.5174
  2.666          0.615           3.77          0.868           83.4       5.5400     0.6812
  2.666          0.621           8.27          0.867           86.2       4.9600     0.4589
  2.667          0.618           6.77          0.867           86.4       4.7100     0.4526
  2.667          1.980           9.77          0.820           89.9       1.2200     0.1814
  2.668          0.616           3.81          0.867           86.3       5.1500     0.5688
  2.669          0.619           2.28          0.867           83.1       5.0700     0.7144
  2.669          1.193          26.26          0.861          154.7       0.2900     0.0729
  2.669          1.995           5.30          0.820           88.7       1.3600     0.2397
  2.670          2.002          12.70          0.818           88.8       0.8400     0.1336
  2.674          0.618           2.37          0.867           87.2       5.1900     0.6844
  2.674          0.621           1.06          0.866           84.6       5.3500     0.6247
  2.674          1.193          11.25          0.859          156.3       1.7000     0.2158
  2.677          0.613          11.24          0.864           88.0       2.8600     0.2830
  2.680          1.195          12.74          0.855           89.6       1.7600     0.2019
  2.681          0.616           9.70          0.863           88.2       3.7100     0.3469
  2.682          1.987           6.83          0.816           92.7       1.6600     0.2577
  2.682          1.995          15.63          0.814           91.2       0.6200     0.1183
  2.685          1.197          14.14          0.854           91.4       1.2800     0.1662
  2.688          1.985          14.23          0.813           91.9       0.8400     0.1336
  2.691          0.616          12.67          0.860           87.7       2.3600     0.2518
  2.691          1.182           9.75          0.856           22.0       2.1900     0.2600
  2.692          1.187          12.76          0.855          153.4       1.1300     0.1608
  2.694          1.973          17.18          0.810           91.1       0.5500     0.1165
  2.701          1.180          15.69          0.850           91.5       1.1800     0.1626
  2.703          2.015           2.24          0.811          156.3       1.3900     0.3729
  2.705          1.171           2.24          0.852          153.2       3.0000     0.5057
  2.727          0.609          14.18          0.851           92.2       2.0100     0.2445
  2.728          1.157           8.12          0.847           25.3       2.0500     0.2627
  2.733          1.167          14.29          0.847          154.7       1.1200     0.1605
  2.740          0.603           2.33          0.852          153.0       4.6200     0.6554
  2.742          1.160           3.83          0.844          154.4       2.5900     0.3853
  2.746          1.941           3.83          0.802          153.5       1.6500     0.3215
  2.766          1.145           5.25          0.839          152.4       3.1100     0.3870
  2.767          1.920           5.24          0.797          155.9       1.2100     0.2451
  2.770          1.142           6.73          0.838           24.4       3.5200     0.4118
  2.770          1.144          17.20          0.834           99.4       1.0700     0.1858
  2.774          0.585           3.77          0.843          156.6       2.7000     0.3462
  2.775          1.139          15.78          0.837          158.1       0.7800     0.1228
  2.778          0.587          15.73          0.838           96.6       1.7000     0.2590
  2.796          1.855           6.72          0.792          154.4       1.2700     0.2189
  2.797          1.134          17.23          0.829           68.6       1.2500     0.2275
  2.799          1.130          17.06          0.832          157.5       0.5000     0.0966
  2.801          1.121           5.22          0.831           24.1       3.1700     0.4144
  2.802          0.574           5.25          0.836          152.6       2.7600     0.3402
  2.810          1.125           6.67          0.828          155.5       2.6000     0.3256
  2.820          1.115          12.69          0.826           70.9       1.3800     0.1955
  2.823          1.120          15.68          0.824           73.7       1.1000     0.1866
  2.829          1.854           8.18          0.783          157.5       1.0400     0.1849
  2.831          1.112          14.19          0.822           73.6       1.5200     0.2091
  2.833          1.114          18.74          0.824          154.8       0.3600     0.0744
  2.839          1.096           8.28          0.822          153.0       1.9000     0.2402
  2.841          1.110           3.77          0.821           25.6       3.4700     0.4766
  2.847          0.561           6.79          0.824          151.6       2.5700     0.3162
  2.850          1.094          11.29          0.818           73.6       1.9300     0.2414
  2.856          1.092          20.19          0.818          153.6       0.3700     0.0746
  2.862          1.816           9.72          0.775          154.4       0.9900     0.1744
  2.866          1.088           2.30          0.816           25.2       4.6200     0.7620
  2.869          1.079           8.18          0.814           76.2       1.9600     0.2678
  2.870          1.080           9.72          0.814           75.5       1.9500     0.2589
  2.871          1.088           9.63          0.814          152.2       1.3400     0.1855
  2.873          0.553           8.10          0.817          151.6       2.1200     0.2994
  2.884          1.073           6.78          0.810           74.6       2.6400     0.3355
  2.885          1.077          21.64          0.811          151.8       0.3300     0.0737
  2.889          0.548          17.15          0.811          108.0       1.6900     0.3318
  2.898          1.072           5.31          0.806           89.0       2.7600     0.3824
  2.899          1.811          12.78          0.764          150.7       0.5800     0.1362
  2.903          0.536           9.71          0.808          145.7       1.3900     0.2590
  2.904          1.068           0.98          0.806          107.5       3.3100     0.6060
  2.905          1.059          11.24          0.805          153.4       1.3700     0.2040
  2.907          1.778          11.40          0.763          155.2       0.5900     0.1269
  2.912          1.053           2.36          0.804           87.3       3.7000     0.6535
  2.914          1.059           3.81          0.803           78.8       3.7000     0.5192
  2.920          1.051          12.68          0.802          150.5       1.0900     0.1955
  2.944          0.528          11.16          0.796          147.6       2.1000     0.4639
  2.945          1.044          14.11          0.794          147.2       0.8600     0.1803
