# :::::::::::::::::::::::::::::::::::
# ::        Cornell (pi+ n)        ::
# :::::::::::::::::::::::::::::::::::

# C. J. Bebek et al., Phys. Rev. D 17, 1693 (1978)


$vars: w (GeV) & qsquared (GeV^2) & thetacm (deg) & epsilon & phi (deg) & diff_phi


# W (GeV)    Q^2 (GeV^2)    theta (deg)        epsilon      phi (deg)       sigma_phi (ub/sr)
# -------    -----------    -----------        -------      ---------       -----------------
  1.900          1.353          22.70          0.592           29.6       0.9200     0.9716
  1.936          1.350          22.43          0.572           48.1       4.6100     3.2916
  1.943          1.347          19.45          0.569           33.2       1.4700     0.6956
  1.943          1.352          16.81          0.566           30.8       1.8300     0.4632
  1.953          1.301          19.06          0.562           27.1       0.7000     0.4221
  1.956          1.348          16.09          0.557           30.7       1.2500     0.3482
  1.957          1.350          22.34          0.558           41.1       3.2300     1.7806
  1.971          1.329          13.40          0.547           31.1       2.0500     0.3616
  1.980          1.307          13.46          0.544           28.0       1.9100     0.3969
  1.995          1.299          10.53          0.535           25.6       2.7100     0.3589
  2.005          1.293          10.50          0.528           27.6       2.4100     0.3787
  2.021          1.375          21.50          0.499           55.0       1.5400     1.1437
  2.025          1.273           7.39          0.518           25.9       2.9700     0.3750
  2.031          1.274           7.35          0.511           26.1       2.4000     0.3509
  2.062          1.237           4.66          0.492           24.8       2.6300     0.3839
  2.066          1.235          16.59          0.491           73.4       2.4500     0.4639
  2.070          1.215          18.85          0.489           74.3       1.4800     0.5868
  2.071          1.225          19.25          0.485           74.3       2.4300     0.6662
  2.071          1.226           4.47          0.490           26.2       3.2100     0.4083
  2.073          1.229           2.03          0.482           28.1       2.7300     0.5931
  2.074          1.234          18.88          0.484           75.8       2.1000     0.5253
  2.078          1.238          21.60          0.479           69.7       2.2200     1.1974
  2.084          1.233          16.34          0.473           82.5       2.4000     0.3877
  2.092          1.205           1.90          0.475           24.9       3.1300     0.5907
  2.096          1.210           4.68          0.468           90.7       2.7400     0.3777
  2.098          1.207           7.52          0.464           89.6       2.0900     0.2797
  2.099          1.201           1.94          0.468           79.1       2.3800     0.3143
  2.100          1.204          13.46          0.468           81.4       2.7000     0.3676
  2.103          1.195           7.56          0.467           87.7       2.7800     0.3259
  2.104          1.187           1.78          0.465           82.5       2.3100     0.5285
  2.104          1.202          16.44          0.462           82.8       2.3100     0.4233
  2.104          1.204          10.40          0.464           85.7       2.4800     0.2909
  2.106          1.171          16.47          0.471           84.9       2.7100     0.4785
  2.106          1.183           4.62          0.467           87.2       3.2100     0.3821
  2.107          1.195          19.11          0.458           82.6       1.8900     0.6697
  2.109          1.191          10.35          0.463           85.6       1.8400     0.2551
  2.109          1.212           2.08          0.458          156.5       2.2500     0.7031
  2.111          1.179           1.97          0.466           87.8       2.9700     0.3235
  2.112          1.160           2.08          0.470           86.4       3.5600     0.6463
  2.113          1.203          10.21          0.458           87.1       2.1900     0.3184
  2.116          1.200           4.49          0.457           91.4       2.5500     0.3368
  2.116          1.204           4.56          0.454           85.3       2.7700     0.3965
  2.117          1.209          13.19          0.452           90.3       2.0800     0.2974
  2.118          1.189           1.94          0.458          152.0       2.9300     0.5489
  2.119          1.175           1.89          0.460           94.3       2.1800     0.4975
  2.119          1.183           7.44          0.453           95.7       2.6200     0.3476
  2.119          1.194          10.39          0.451           90.6       2.4700     0.3080
  2.124          1.161           2.05          0.458           92.8       2.2500     0.4890
  2.124          1.177          13.26          0.450           90.3       1.9100     0.3211
  2.125          1.184           7.50          0.449           91.0       2.9700     0.3489
  2.127          1.175          13.50          0.451           89.3       2.3100     0.3214
  2.146          1.153           4.64          0.437          155.8       2.6100     0.4954
  2.167          1.126           4.54          0.426          153.7       2.6300     0.3390
  2.173          1.120           7.51          0.421          151.1       2.4300     0.2981
  2.193          1.112           7.40          0.402          152.8       1.5100     0.3422
  2.195          1.121          10.22          0.395          154.1       2.0600     0.4282
  2.200          1.100          10.41          0.400          151.5       2.0600     0.2969
  2.227          1.068          13.16          0.379          152.6       1.8600     0.3484
  2.230          1.081          13.37          0.375          148.1       0.8300     0.4229
  2.248          1.067          16.51          0.360          141.5       0.4300     0.2613
  2.257          1.086          15.42          0.350          173.6       0.5900     0.4414
  2.316          1.002          18.85          0.309          167.5       1.0500     1.0719
  2.439          3.813          22.01          0.455           38.1       0.4400     0.3211
  2.457          2.312          16.03          0.445           30.4       0.7400     0.2736
  2.457          3.716          19.90          0.453           30.6       0.2000     0.1206
  2.458          3.781          16.21          0.453           27.0       0.4900     0.1431
  2.466          2.289          19.40          0.441           34.4       1.1500     0.6040
  2.470          2.284          16.26          0.426           30.5       0.5700     0.2226
  2.482          3.696          13.33          0.438           29.0       0.3200     0.0920
  2.489          2.208          18.69          0.444           38.7       0.6600     0.4816
  2.489          2.269          13.60          0.425           30.5       0.7600     0.2149
  2.490          2.242          13.12          0.423           28.7       0.5300     0.1729
  2.501          3.652          10.62          0.438           25.9       0.4800     0.1041
  2.502          6.513          19.68          0.458           28.0       0.2100     0.1207
  2.503          2.282          16.04          0.408           65.4       0.4300     0.2314
  2.525          2.218          10.34          0.407           25.5       0.9100     0.1596
  2.525          2.279          18.34          0.383           57.3       1.0500     0.7726
  2.526          6.551          14.04          0.449           29.8       0.1000     0.4000
  2.529          2.167          10.56          0.408           26.4       0.8300     0.1581
  2.533          6.604           8.50          0.430           25.1       0.3100     0.0919
  2.538          2.112          16.18          0.417           54.4       0.3600     0.2410
  2.541          3.533           7.30          0.428           27.3       0.6200     0.1161
  2.564          2.145           7.50          0.384           26.1       1.0100     0.1711
  2.565          9.998          20.17          0.413           93.7       0.0400     0.0800
  2.571          2.171          16.58          0.382           72.8       0.8100     0.3039
  2.573          3.396           4.42          0.420           28.7       0.5300     0.1241
  2.577          2.116           7.39          0.380           27.1       1.0800     0.1819
  2.579          6.412          26.20          0.430           75.5       0.1200     0.0505
  2.580          9.778           3.49          0.428           91.5       0.0800     0.2001
  2.581          3.567          19.35          0.396           74.3       0.3100     0.0821
  2.589          3.451           2.39          0.402          146.0       0.4700     0.2715
  2.594          2.091           4.45          0.371           28.1       1.1300     0.2017
  2.599          3.407           2.00          0.398           95.5       0.4600     0.1525
  2.599          3.628          24.13          0.385           71.7       0.1700     0.1903
  2.600          9.353          19.78          0.438           29.6       0.0500     0.0801
  2.604          2.089           4.50          0.367           23.3       0.9500     0.1888
  2.606          3.484          22.28          0.385           85.4       0.2900     0.1213
  2.608          3.377           1.89          0.395           28.1       0.7500     0.2344
  2.608          3.377          18.36          0.395           28.1       0.9400     0.9716
  2.609          6.360          26.01          0.427           78.3       0.0900     0.0602
  2.609          6.432           4.30          0.415           82.7       0.2500     0.0912
  2.621          2.031          10.31          0.358           80.5       0.7200     0.1465
  2.621          3.355           7.53          0.398           87.5       0.5700     0.0963
  2.623          2.037          13.63          0.357           72.6       0.6100     0.1447
  2.623          2.081          16.11          0.347           76.0       0.5400     0.2224
  2.624          2.053           1.89          0.352           82.1       1.5700     0.3432
  2.624          3.482          22.38          0.386           75.3       0.3900     0.1321
  2.624          3.598          25.54          0.367           87.2       0.2000     0.1306
  2.625          2.050          13.43          0.355           75.6       0.6400     0.1743
  2.625          3.330           1.92          0.395           78.8       0.5200     0.1048
  2.626          3.354          19.41          0.390           89.1       0.3100     0.0821
  2.627          3.385           7.53          0.391           89.6       0.6200     0.1067
  2.631          6.513          19.95          0.397          105.1       0.1400     0.0705
  2.632          1.994          13.60          0.359           83.3       0.6100     0.1641
  2.632          2.022          10.24          0.350           82.3       0.6900     0.1364
  2.632          2.044          13.56          0.338           76.4       0.6100     0.1544
  2.632          9.692           9.13          0.405           27.1       0.0600     0.0402
  2.635          9.770           4.14          0.400           77.0       0.1200     0.0309
  2.636          2.021           1.97          0.351           23.1       1.3500     0.3301
  2.636          3.352          13.62          0.384           88.4       0.4300     0.0746
  2.637          6.322          14.34          0.408           93.6       0.1700     0.0413
  2.639          1.988          10.22          0.353           75.3       0.9900     0.1613
  2.639          2.009           4.63          0.346           86.5       1.2900     0.2145
  2.641          1.980           2.07          0.349           23.8       1.1900     0.2890
  2.641          3.358          10.73          0.384           99.4       0.4600     0.0752
  2.642          6.384          20.91          0.396           99.6       0.1000     0.0306
  2.643          1.982           4.57          0.351           86.9       1.3100     0.1964
  2.643          3.334          16.46          0.386           85.4       0.3500     0.0827
  2.644          2.021           7.43          0.342           84.4       1.0700     0.1724
  2.646          3.323          13.56          0.387           87.8       0.5300     0.0861
  2.646          6.240           8.78          0.412           92.4       0.2800     0.0623
  2.647          3.346          10.46          0.383           91.3       0.6400     0.0978
  2.648          9.872           3.61          0.387           28.3       0.2500     0.0912
  2.649          6.208           3.17          0.415           24.3       0.2300     0.1109
  2.651          9.663          27.46          0.395           79.2       0.0400     0.7000
  2.654          1.946           7.53          0.344           87.4       0.6900     0.1269
  2.654          1.965           2.04          0.350          152.7       2.3200     0.6745
  2.656          1.987           4.58          0.334           84.2       0.9600     0.1701
  2.659          1.947           2.08          0.345           82.8       1.3700     0.1979
  2.660          1.960           7.53          0.337           82.2       0.8800     0.1403
  2.660          6.297           4.16          0.400           79.3       0.1900     0.0513
  2.661          3.305           4.52          0.378           93.5       0.4800     0.1041
  2.662          9.743          14.81          0.383           87.0       0.0900     0.0305
  2.662          9.770           8.45          0.392           94.8       0.0600     0.0302
  2.663          1.954          10.54          0.335           84.8       0.9600     0.1607
  2.666          3.224          16.24          0.385           91.1       0.3600     0.0733
  2.666          9.946          20.15          0.372           91.5       0.0500     0.1000
  2.667          1.942           2.00          0.334           84.8       1.2600     0.1680
  2.668          1.968           4.65          0.332           83.6       1.0200     0.1901
  2.670          1.923           2.17          0.337           80.8       1.1100     0.2975
  2.672          1.957           7.29          0.333           90.2       0.8000     0.1386
  2.675          1.881           2.14          0.342           89.6       1.2400     0.3383
  2.675          1.940           4.35          0.333          153.9       1.2500     0.3287
  2.678          3.235           4.83          0.378           97.3       0.5900     0.1251
  2.683          6.133          14.67          0.410           92.1       0.2700     0.0621
  2.696          1.894           2.13          0.322           81.1       1.2700     0.2998
  2.697          1.904           4.20          0.314          153.6       1.2800     0.2236
  2.698          6.176           4.92          0.388           93.9       0.0800     0.1001
  2.701          6.343           8.86          0.378           97.8       0.0900     0.7000
  2.703          9.557          15.77          0.386           84.6       0.0400     0.6000
  2.710          3.178           7.87          0.364          153.8       0.5500     0.1341
  2.711          9.372           5.31          0.391          140.6       0.0700     0.9000
  2.711          9.851          19.45          0.354          146.9       0.0600     0.7000
  2.713          1.857           7.56          0.311          149.2       0.5100     0.1336
  2.714          3.184           4.70          0.354          153.7       0.6100     0.1641
  2.714          3.223          10.42          0.355          150.3       0.6500     0.1262
  2.718          1.812           1.92          0.309          158.0       0.9900     0.3255
  2.718          9.509           9.64          0.387          104.2       0.1500     0.0410
  2.722          3.037           1.44          0.383           71.2       0.4100     0.1718
  2.724          6.175           8.43          0.383          154.1       0.1700     0.0707
  2.729          9.427           9.00          0.392          148.2       0.0700     0.7000
  2.736          6.355           4.92          0.358          163.2       0.2300     0.1208
  2.744          1.791           7.45          0.297          154.5       1.8100     0.3952
  2.757          1.741          10.27          0.287          154.5       0.7600     0.1857
  2.761          5.830          14.64          0.390          148.1       0.1200     0.0505
  2.763          1.780          10.59          0.278          156.0       0.7700     0.2739
  2.780          9.287          15.46          0.370          150.9       0.0800     0.5000
  2.786          1.855          12.84          0.256          158.5       0.4000     0.2910
  2.793          2.932          16.11          0.325          152.3       0.4100     0.1421
  2.803          1.627          13.62          0.270          152.7       0.2600     0.1508
  2.805          2.925          13.24          0.326          152.4       0.1400     0.0606
  2.806          6.074          19.27          0.341          153.8       0.1300     0.0804
  2.849          9.468          27.15          0.321          151.3       0.0900     0.1001
  2.869          2.788          21.94          0.282          155.5       0.7700     0.5719
  2.870          2.799          18.84          0.311          149.2       0.1200     0.1702
